TITLE		
DATA TYPE		
ORIGIN	JASCO	
OWNER		
DATE	13/02/2011	
TIME	11:17:07	
SPECTROMETER/DATA SYSTEM		
LOCALE	2057	
RESOLUTION		
DELTAX	-0.2	
XUNITS	NANOMETERS	
YUNITS	CD [mdeg]	
Y2UNITS	HT [V]	
FIRSTX	260	
LASTX	200	
NPOINTS	301	
FIRSTY	-0.11351	
MAXY	-0.0244	
MINY	-17.06321	
XYDATA		
260	-0.0051595	259.478
259.8	-0.0053715	259.559
259.6	-0.003938277	259.652
259.4	-0.003260709	259.737
259.2	-0.004690955	259.821
259	-0.003840341	259.908
258.8	-0.002873282	259.983
258.6	-0.003139582	260.057
258.4	-0.002453759	260.131
258.2	-0.002551282	260.198
258	-0.002856523	260.27
257.8	-0.002138341	260.343
257.6	-0.001490355	260.413
257.4	-0.001108986	260.488
257.2	-0.002504782	260.558
257	-0.004960045	260.632
256.8	-0.004516268	260.707
256.6	-0.005064773	260.782
256.4	-0.004532505	260.855
256.2	-0.002847114	260.922
256	-0.004166005	260.998
255.8	-0.004600182	261.067
255.6	-0.004332909	261.14
255.4	-0.003895055	261.214
255.2	-0.004137405	261.281
255	-0.003390482	261.355
254.8	-0.003270832	261.426
254.6	-0.003083132	261.501
254.4	-0.001858855	261.581
254.2	-0.001469159	261.657
254	-0.00142	261.733
253.8	-0.001110132	261.809
253.6	-0.001536409	261.88
253.4	-0.001870327	261.951
253.2	-0.001341218	262.022
253	-0.001780541	262.088
252.8	-0.002836814	262.155
252.6	-0.0034658	262.218
252.4	-0.003604736	262.284
252.2	-0.004178855	262.364
252	-0.006168955	262.444
251.8	-0.007572455	262.526
251.6	-0.008925864	262.61
251.4	-0.009099727	262.688
251.2	-0.008615045	262.761
251	-0.007726045	262.836
250.8	-0.008354682	262.914
250.6	-0.009083818	262.988
250.4	-0.008539455	263.061
250.2	-0.0094505	263.138
250	-0.008316227	263.208
249.8	-0.008032	263.285
249.6	-0.007485273	263.364
249.4	-0.005014909	263.438
249.2	-0.005038227	263.511
249	-0.005273409	263.583
248.8	-0.006703545	263.654
248.6	-0.010331045	263.728
248.4	-0.011827045	263.804
248.2	-0.0144675	263.878
248	-0.014417091	263.947
247.8	-0.014754682	264.013
247.6	-0.016088545	264.07
247.4	-0.015282955	264.131
247.2	-0.016225682	264.197
247	-0.016614636	264.279
246.8	-0.0172315	264.385
246.6	-0.018311409	264.494
246.4	-0.019647318	264.616
246.2	-0.021759591	264.728
246	-0.022134955	264.838
245.8	-0.024180409	264.938
245.6	-0.026349727	265.04
245.4	-0.028455636	265.138
245.2	-0.029532364	265.231
245	-0.029520864	265.337
244.8	-0.031004682	265.434
244.6	-0.029913591	265.542
244.4	-0.033354773	265.649
244.2	-0.036777	265.748
244	-0.040029273	265.86
243.8	-0.044206864	265.968
243.6	-0.045565909	266.079
243.4	-0.047831364	266.199
243.2	-0.048886818	266.33
243	-0.049574545	266.46
242.8	-0.050371818	266.595
242.6	-0.052811364	266.732
242.4	-0.056108182	266.862
242.2	-0.059441818	267.007
242	-0.063175455	267.16
241.8	-0.065103182	267.321
241.6	-0.068279091	267.487
241.4	-0.071950909	267.646
241.2	-0.073787273	267.811
241	-0.078185	267.979
240.8	-0.080471364	268.155
240.6	-0.081939545	268.341
240.4	-0.085534091	268.532
240.2	-0.089496818	268.731
240	-0.094106818	268.935
239.8	-0.098888182	269.149
239.6	-0.103873182	269.37
239.4	-0.106146364	269.602
239.2	-0.110635	269.841
239	-0.116157273	270.085
238.8	-0.121057727	270.341
238.6	-0.126455455	270.601
238.4	-0.130278636	270.86
238.2	-0.132884091	271.134
238	-0.136890909	271.41
237.8	-0.143395	271.695
237.6	-0.149206818	271.989
237.4	-0.157277727	272.287
237.2	-0.16335	272.591
237	-0.168177273	272.904
236.8	-0.171904545	273.232
236.6	-0.174259091	273.573
236.4	-0.17856	273.92
236.2	-0.183093636	274.28
236	-0.189574091	274.642
235.8	-0.194828636	275.016
235.6	-0.200302273	275.394
235.4	-0.205290909	275.782
235.2	-0.209799091	276.18
235	-0.215691364	276.585
234.8	-0.223017273	276.994
234.6	-0.227762273	277.406
234.4	-0.233107727	277.833
234.2	-0.239924091	278.267
234	-0.244619545	278.719
233.8	-0.250881818	279.188
233.6	-0.257772727	279.662
233.4	-0.263531364	280.144
233.2	-0.269642727	280.631
233	-0.275114091	281.122
232.8	-0.278818182	281.621
232.6	-0.282833636	282.128
232.4	-0.286967273	282.644
232.2	-0.293349545	283.161
232	-0.301335909	283.678
231.8	-0.310415455	284.196
231.6	-0.317836818	284.724
231.4	-0.322974091	285.272
231.2	-0.330132273	285.832
231	-0.337515	286.399
230.8	-0.344921818	286.964
230.6	-0.354028182	287.515
230.4	-0.360148182	288.052
230.2	-0.367019545	288.573
230	-0.377058636	289.073
229.8	-0.386195	289.562
229.6	-0.398321818	290.066
229.4	-0.408491364	290.593
229.2	-0.416922727	291.169
229	-0.425680455	291.775
228.8	-0.43536	292.396
228.6	-0.442727273	293.026
228.4	-0.452588636	293.637
228.2	-0.462381818	294.251
228	-0.471422727	294.857
227.8	-0.481822727	295.452
227.6	-0.487422727	296.058
227.4	-0.495436364	296.652
227.2	-0.502659091	297.25
227	-0.509731818	297.852
226.8	-0.521854545	298.444
226.6	-0.531572727	299.051
226.4	-0.538877273	299.659
226.2	-0.544977273	300.273
226	-0.551490909	300.909
225.8	-0.556709091	301.541
225.6	-0.5638	302.181
225.4	-0.5706	302.829
225.2	-0.574254545	303.482
225	-0.579895455	304.147
224.8	-0.584890909	304.82
224.6	-0.59045	305.502
224.4	-0.594245455	306.188
224.2	-0.595454545	306.876
224	-0.599304545	307.569
223.8	-0.602990909	308.266
223.6	-0.608609091	308.97
223.4	-0.614327273	309.685
223.2	-0.618172727	310.414
223	-0.620568182	311.151
222.8	-0.621054545	311.898
222.6	-0.623259091	312.657
222.4	-0.624131818	313.434
222.2	-0.627731818	314.225
222	-0.630163636	315.031
221.8	-0.628613636	315.846
221.6	-0.63045	316.666
221.4	-0.624954545	317.519
221.2	-0.62445	318.382
221	-0.623695455	319.276
220.8	-0.620927273	320.196
220.6	-0.623072727	321.118
220.4	-0.622204545	322.066
220.2	-0.622481818	323.018
220	-0.622668182	323.988
219.8	-0.620322727	324.998
219.6	-0.619795455	326.027
219.4	-0.619031818	327.087
219.2	-0.617868182	328.18
219	-0.617336364	329.288
218.8	-0.614136364	330.433
218.6	-0.604836364	331.613
218.4	-0.603036364	332.814
218.2	-0.602818182	334.046
218	-0.603222727	335.297
217.8	-0.609872727	336.578
217.6	-0.611913636	337.895
217.4	-0.607536364	339.255
217.2	-0.604272727	340.656
217	-0.602086364	342.09
216.8	-0.598922727	343.56
216.6	-0.595809091	345.069
216.4	-0.595359091	346.63
216.2	-0.592868182	348.228
216	-0.591927273	349.883
215.8	-0.590063636	351.575
215.6	-0.586618182	353.312
215.4	-0.589740909	355.094
215.2	-0.587122727	356.923
215	-0.589990909	358.826
214.8	-0.59705	360.77
214.6	-0.597331818	362.759
214.4	-0.601881818	364.797
214.2	-0.604027273	366.876
214	-0.602509091	369.017
213.8	-0.602495455	371.252
213.6	-0.599595455	373.583
213.4	-0.604004545	375.989
213.2	-0.61195	378.498
213	-0.621336364	381.093
212.8	-0.62365	383.78
212.6	-0.627627273	386.579
212.4	-0.627372727	389.477
212.2	-0.630318182	392.462
212	-0.641863636	395.536
211.8	-0.648981818	398.717
211.6	-0.659477273	401.982
211.4	-0.670445455	405.367
211.2	-0.674613636	408.896
211	-0.68235	412.507
210.8	-0.686754545	416.243
210.6	-0.691659091	420.098
210.4	-0.691654545	424.056
210.2	-0.705322727	428.144
210	-0.709186364	432.357
209.8	-0.715554545	436.723
209.6	-0.727068182	441.243
209.4	-0.732827273	445.917
209.2	-0.751572727	450.786
209	-0.762140909	455.802
208.8	-0.7756	460.984
208.6	-0.773559091	466.354
208.4	-0.767677273	471.9
208.2	-0.761977273	477.643
208	-0.761895455	483.572
207.8	-0.764163636	489.72
207.6	-0.753236364	496.124
207.4	-0.736531818	502.745
207.2	-0.717718182	509.586
207	-0.692668182	516.677
206.8	-0.6947	523.942
206.6	-0.697095455	531.463
206.4	-0.696531818	539.279
206.2	-0.694759091	547.347
206	-0.677959091	555.727
205.8	-0.646904545	564.425
205.6	-0.640181818	573.41
205.4	-0.621877273	582.706
205.2	-0.591672727	592.328
205	-0.579677273	602.285
204.8	-0.5566	612.565
204.6	-0.530036364	623.226
204.4	-0.544059091	634.26
204.2	-0.504154545	645.683
204	-0.455504545	657.518
203.8	-0.465077273	669.747
203.6	-0.410047273	682.441
203.4	-0.361950909	695.541
203.2	-0.396335909	709.071
203	-0.333429091	723.078
202.8	-0.292054545	737.544
202.6	-0.229736818	752.581
202.4	-0.148684545	768.077
202.2	-0.108775455	784.059
202	-0.086689091	800.385
201.8	-0.189338182	816.861
201.6	-0.19856	833.625
201.4	-0.178802727	850.523
201.2	-0.176965909	867.556
201	-0.122177727	884.758
200.8	-0.108392727	901.9
200.6	-0.165105909	918.812
200.4	-0.053430909	935.47
200.2	-0.209480455	951.168
200	-0.329342273	964.827
		
##### Extended Information		
[Comments]		
Sample name		
Comment		
User		
Division		
Company	N.I.M.R	
		
[Detailed Information]		
Creation date	11/02/2013 12:17	
		
Data array type	Linear data array * 2	
Horizontal axis	Wavelength [nm]	
Vertical axis(1)	CD [mdeg]	
Vertical axis(2)	HT [V]	
Start	260 nm	
End	200 nm	
Data interval	0.2 nm	
Data points	301	
		
[Measurement Information]		
Instrument Name	Jasco J815	
Model Name	J-815	
Serial No.	B059861168	
		
Accessory	CDF-426S	
Accessory S/N	C016161183	
  Temperature	20.00 C	
  Control Sonsor	Holder	
  Monitor Sensor	Holder	
  Start Mode	Start immediately	
  Cell Length	10 mm	
		
Measurement date	11/02/2013 12:17	
		
Photometric Mode	"CD, HT"	
Measure Range	260 - 200 nm	
Data pitch	0.2 nm	
Sensitivity	Standard	
D.I.T.	0.25 sec	
Bandwidth	1.00 nm	
Start Mode	Immediately	
Scanning Speed	200 nm/min	
Baseline Correction	None	
Shutter Control	Auto	
CD Detector	PMT	
PMT Voltage	Auto	
Accumulations	50	
